 ISO 7589‐2002 Table 2  
9
2
Weighted spectral sensitivities lor
ISO sensitometric
studio tungsten calculating ISO/SOl of studio tung sten
iIIuminant
illuminant
(studio tungsten
Blue
Green
transmitted by lens)
Wavelength, }, Studio tungsten Relative spectral om P, r (}.) s~ =P~ r (}.) 1 0 ,00 0 1
               relative power transmittance of 0 ,07 
                              the ISO standard 0 ,23 
                              lens 0,42 
                                   0 ,60 
0 ,21 2
1,15 
3,36 
7,20 
350
360
370
380
390
3
5
8
12
16
20
24
29
400 34
410 
420 
430 
440 
450 500 
460 510 
470 520 
480 530 
490 540 
550
560
570
580
590
0 ,74
0 ,83
..,
11 ,84
16,60
21 ,12
W (}')
s
"'GO·)
"'RP· )
5
12
22
32
40
44
45
40
0 ,88 26,39 38 0 ,95 41,71 0 ,99 58,41 64 81 0 ,99 63 ,36 88 1,00 88,00 15
0 ,91 31 ,96 43 0 ,97 47,04 1,00 70,00 
0 ,94 48 0 ,98 51 ,94 1,00 76,00 
      53 0 ,98 1,00 81 ,00 
      59 
94,00 24
100,00 
105,00 
111 ,00 
114,84 3
120,78 1
125,73 
70
76
94 1,00
100 1,00
105 1,00
111 
116 
1,00
0 ,99
122 0 ,99
36 ,10
600 127 0 ,99 132 0 ,98 0 ,97 129,36
610 138 0 ,98 135,24
620 143 138,71
630 
640 
650 148 0 ,97 143,56
660 153 0 ,96 146,88
670 157 
680 162 
690 167 
0 ,95 149,15
0 ,94 152,28
0 ,94 156,98
36
31
21
11
5
2
1
1
1
1
2
3
5
8
12
13
10
1
1
1
1
2
3
4
5
8
13
15
11
3
0
 

